# Megaprime field corrector transmission. Includes:
# - Wide Field Corrector
# - Image Stabilizing Plate
# - Camera Window
3000 	0.00000
3010 	0.00000
3020 	0.00001
3030 	0.00003
3040 	0.00008
3050 	0.00023
3060 	0.00055
3070 	0.00122
3080 	0.00250
3090 	0.00479
3100 	0.00869
3110 	0.01321
3120 	0.01957
3130 	0.02829
3140 	0.04002
3150 	0.05551
3160 	0.07560
3170 	0.10115
3180 	0.13313
3190 	0.17259
3200 	0.22079
3210 	0.24754
3220 	0.27595
3230 	0.30589
3240 	0.33738
3250 	0.37042
3260 	0.40498
3270 	0.44113
3280 	0.47885
3290 	0.51823
3300 	0.55928
3310 	0.57301
3320 	0.58622
3330 	0.59898
3340 	0.61130
3350 	0.62337
3360 	0.63532
3370 	0.64707
3380 	0.65870
3390 	0.67031
3400 	0.68209
3410 	0.68540
3420 	0.68879
3430 	0.69215
3440 	0.69563
3450 	0.69924
3460 	0.70273
3470 	0.70679
3480 	0.71088
3490 	0.71532
3500 	0.71989
3510 	0.72021
3520 	0.72097
3530 	0.72151
3540 	0.72259
3550 	0.72361
3560 	0.72490
3570 	0.72635
3580 	0.72815
3590 	0.72983
3600 	0.73170
3610 	0.73551
3620 	0.73938
3630 	0.74321
3640 	0.74720
3650 	0.75130
3660 	0.75359
3670 	0.75583
3680 	0.75814
3690 	0.76059
3700 	0.76284
3710 	0.76430
3720 	0.76585
3730 	0.76753
3740 	0.76907
3750 	0.77071
3760 	0.77261
3770 	0.77448
3780 	0.77562
3790 	0.77636
3800 	0.77697
3810 	0.77837
3820 	0.77981
3830 	0.78136
3840 	0.78276
3850 	0.78406
3860 	0.78503
3870 	0.78617
3880 	0.78707
3890 	0.78795
3900 	0.78870
3910 	0.78957
3920 	0.79058
3930 	0.79144
3940 	0.79221
3950 	0.79277
3960 	0.79333
3970 	0.79392
3980 	0.79453
3990 	0.79517
4000 	0.79575
4010 	0.79554
4020 	0.79548
4030 	0.79541
4040 	0.79554
4050 	0.79547
4060 	0.79546
4070 	0.79525
4080 	0.79511
4090 	0.79502
4100 	0.79516
4110 	0.79529
4120 	0.79536
4130 	0.79550
4140 	0.79566
4150 	0.79576
4160 	0.79592
4170 	0.79600
4180 	0.79613
4190 	0.79635
4200 	0.79674
4210 	0.79735
4220 	0.79784
4230 	0.79834
4240 	0.79894
4250 	0.79951
4260 	0.80019
4270 	0.80053
4280 	0.80131
4290 	0.80188
4300 	0.80283
4310 	0.80357
4320 	0.80457
4330 	0.80561
4340 	0.80652
4350 	0.80751
4360 	0.80836
4370 	0.80949
4380 	0.81043
4390 	0.81131
4400 	0.81240
4410 	0.81369
4420 	0.81526
4430 	0.81657
4440 	0.81774
4450 	0.81874
4460 	0.81987
4470 	0.82111
4480 	0.82246
4490 	0.82368
4500 	0.82503
4510 	0.82627
4520 	0.82766
4530 	0.82895
4540 	0.83024
4550 	0.83157
4560 	0.83284
4570 	0.83418
4580 	0.83544
4590 	0.83672
4600 	0.83785
4610 	0.83909
4620 	0.84027
4630 	0.84163
4640 	0.84276
4650 	0.84390
4660 	0.84486
4670 	0.84572
4680 	0.84665
4690 	0.84772
4700 	0.84902
4710 	0.85010
4720 	0.85092
4730 	0.85157
4740 	0.85240
4750 	0.85327
4760 	0.85414
4770 	0.85487
4780 	0.85570
4790 	0.85640
4800 	0.85728
4810 	0.85812
4820 	0.85908
4830 	0.85979
4840 	0.86059
4850 	0.86130
4860 	0.86198
4870 	0.86263
4880 	0.86322
4890 	0.86377
4900 	0.86431
4910 	0.86477
4920 	0.86529
4930 	0.86576
4940 	0.86619
4950 	0.86659
4960 	0.86693
4970 	0.86725
4980 	0.86741
4990 	0.86758
5000 	0.86767
5010 	0.86726
5020 	0.86710
5030 	0.86695
5040 	0.86685
5050 	0.86663
5060 	0.86618
5070 	0.86584
5080 	0.86536
5090 	0.86513
5100 	0.86478
5110 	0.86452
5120 	0.86413
5130 	0.86357
5140 	0.86302
5150 	0.86254
5160 	0.86209
5170 	0.86163
5180 	0.86096
5190 	0.86030
5200 	0.85971
5210 	0.85918
5220 	0.85865
5230 	0.85799
5240 	0.85737
5250 	0.85660
5260 	0.85580
5270 	0.85505
5280 	0.85450
5290 	0.85376
5300 	0.85302
5310 	0.85216
5320 	0.85151
5330 	0.85073
5340 	0.85013
5350 	0.84953
5360 	0.84896
5370 	0.84818
5380 	0.84734
5390 	0.84629
5400 	0.84538
5410 	0.84438
5420 	0.84365
5430 	0.84291
5440 	0.84221
5450 	0.84163
5460 	0.84097
5470 	0.84024
5480 	0.83940
5490 	0.83855
5500 	0.83777
5510 	0.83681
5520 	0.83607
5530 	0.83527
5540 	0.83454
5550 	0.83361
5560 	0.83271
5570 	0.83183
5580 	0.83088
5590 	0.83018
5600 	0.82945
5610 	0.82868
5620 	0.82791
5630 	0.82699
5640 	0.82616
5650 	0.82514
5660 	0.82444
5670 	0.82376
5680 	0.82327
5690 	0.82253
5700 	0.82182
5710 	0.82109
5720 	0.82049
5730 	0.81990
5740 	0.81911
5750 	0.81858
5760 	0.81813
5770 	0.81758
5780 	0.81689
5790 	0.81601
5800    0.81549
5810    0.81475
5820    0.81414
5830    0.81350
5840    0.81295
5850    0.81241
5860    0.81180
5870    0.81133
5880    0.81095
5890    0.81061
5900    0.81012
5910    0.80954
5920    0.80908
5930    0.80865
5940    0.80832
5950    0.80776
5960    0.80736
5970    0.80690
5980    0.80657
5990    0.80613
6000    0.80565
6010    0.80540
6020    0.80526
6030    0.80515
6040    0.80503
6050    0.80471
6060    0.80444
6070    0.80425
6080    0.80408
6090    0.80376
6100    0.80332
6110    0.80311
6120    0.80328
6130    0.80324
6140    0.80327
6150    0.80288
6160    0.80297
6170    0.80272
6180    0.80269
6190    0.80247
6200    0.80238
6210    0.80229
6220    0.80229
6230    0.80222
6240    0.80219
6250    0.80222
6260    0.80227
6270    0.80235
6280    0.80222
6290    0.80218
6300    0.80207
6310    0.80219
6320    0.80230
6330    0.80245
6340    0.80238
6350    0.80243
6360    0.80242
6370    0.80248
6380    0.80256
6390    0.80275
6400    0.80303
6410    0.80298
6420    0.80308
6430    0.80315
6440    0.80344
6450    0.80346
6460    0.80343
6470    0.80351
6480    0.80386
6490    0.80402
6500    0.80420
6510    0.80441
6520    0.80485
6530    0.80520
6540    0.80551
6550    0.80566
6560    0.80587
6570    0.80615
6580    0.80648
6590    0.80692
6600    0.80725
6610    0.80765
6620    0.80805
6630    0.80848
6640    0.80902
6650    0.80948
6660    0.80994
6670    0.81020
6680    0.81054
6690    0.81061
6700    0.81092
6710    0.81106
6720    0.81169
6730    0.81200
6740    0.81244
6750    0.81260
6760    0.81298
6770    0.81338
6780    0.81375
6790    0.81444
6800    0.81507
6810    0.81573
6820    0.81618
6830    0.81653
6840    0.81698
6850    0.81729
6860    0.81785
6870    0.81828
6880    0.81864
6890    0.81905
6900    0.81963
6910    0.82040
6920    0.82090
6930    0.82143
6940    0.82171
6950    0.82205
6960    0.82248
6970    0.82300
6980    0.82362
6990    0.82397
7000    0.82451
7010    0.82498
7020    0.82556
7030    0.82610
7040    0.82660
7050    0.82708
7060    0.82732
7070    0.82767
7080    0.82819
7090    0.82877
7100    0.82924
7110    0.82973
7120    0.83018
7130    0.83050
7140    0.83082
7150    0.83120
7160    0.83158
7170    0.83192
7180    0.83250
7190    0.83308
7200    0.83345
7210    0.83396
7220    0.83461
7230    0.83517
7240    0.83554
7250    0.83584
7260    0.83641
7270    0.83695
7280    0.83759
7290    0.83805
7300    0.83848
7310    0.83884
7320    0.83933
7330    0.83980
7340    0.84034
7350    0.84096
7360    0.84155
7370    0.84217
7380    0.84266
7390    0.84319
7400    0.84349
7410    0.84389
7420    0.84418
7430    0.84473
7440    0.84526
7450    0.84588
7460    0.84637
7470    0.84676
7480    0.84734
7490    0.84752
7500    0.84792
7510    0.84823
7520    0.84901
7530    0.84972
7540    0.85036
7550    0.85085
7560    0.85117
7570    0.85158
7580    0.85208
7590    0.85245
7600    0.85274
7610    0.85317
7620    0.85391
7630    0.85457
7640    0.85540
7650    0.85593
7660    0.85642
7670    0.85665
7680    0.85694
7690    0.85721
7700    0.85761
7710    0.85791
7720    0.85843
7730    0.85881
7740    0.85924
7750    0.85987
7760    0.86044
7770    0.86103
7780    0.86128
7790    0.86146
7800    0.86181
7810    0.86224
7820    0.86267
7830    0.86316
7840    0.86351
7850    0.86379
7860    0.86414
7870    0.86474
7880    0.86524
7890    0.86549
7900    0.86563
7910    0.86584
7920    0.86632
7930    0.86683
7940    0.86741
7950    0.86777
7960    0.86783
7970    0.86796
7980    0.86803
7990    0.86829
8000    0.86848
8010    0.86852
8020    0.86883
8030    0.86908
8040    0.86937
8050    0.86973
8060    0.86985
8070    0.86991
8080    0.87011
8090    0.87022
8100    0.87029
8110    0.87038
8120    0.87069
8130    0.87100
8140    0.87128
8150    0.87123
8160    0.87161
8170    0.87167
8180    0.87158
8190    0.87165
8200    0.87196
8210    0.87213
8220    0.87224
8230    0.87233
8240    0.87242
8250    0.87261
8260    0.87269
8270    0.87284
8280    0.87301
8290    0.87321
8300    0.87280
8310    0.87302
8320    0.87325
8330    0.87339
8340    0.87356
8350    0.87382
8360    0.87402
8370    0.87429
8380    0.87437
8390    0.87472
8400    0.87498
8410    0.87528
8420    0.87536
8430    0.87546
8440    0.87552
8450    0.87564
8460    0.87584
8470    0.87600
8480    0.87610
8490    0.87626
8500    0.87636
8510    0.87635
8520    0.87636
8530    0.87638
8540    0.87645
8550    0.87653
8560    0.87663
8570    0.87679
8580    0.87678
8590    0.87689
8600    0.87697
8610    0.87711
8620    0.87713
8630    0.87722
8640    0.87722
8650    0.87731
8660    0.87743
8670    0.87740
8680    0.87720
8690    0.87701
8700    0.87694
8710    0.87681
8720    0.87678
8730    0.87671
8740    0.87667
8750    0.87656
8760    0.87654
8770    0.87660
8780    0.87631
8790    0.87631
8800    0.87606
8810    0.87583
8820    0.87555
8830    0.87534
8840    0.87511
8850    0.87485
8860    0.87461
8870    0.87449
8880    0.87417
8890    0.87402
8900    0.87379
8910    0.87344
8920    0.87316
8930    0.87272
8940    0.87224
8950    0.87184
8960    0.87147
8970    0.87115
8980    0.87072
8990    0.87046
9000    0.87011
9010    0.86982
9020    0.86933
9030    0.86892
9040    0.86821
9050    0.86750
9060    0.86674
9070    0.86633
9080    0.86551
9090    0.86500
9100    0.86447
9110    0.86384
9120    0.86325
9130    0.86265
9140    0.86202
9150    0.86140
9160    0.86099
9170    0.86052
9180    0.85974
9190    0.85893
9200    0.85810
9210    0.85740
9220    0.85653
9230    0.85589
9240    0.85507
9250    0.85430
9260    0.85348
9270    0.85296
9280    0.85205
9290    0.85134
9300    0.85048
9310    0.84949
9320    0.84854
9330    0.84776
9340    0.84698
9350    0.84609
9360    0.84534
9370    0.84455
9380    0.84358
9390    0.84259
9400    0.84171
9410    0.84075
9420    0.83972
9430    0.83894
9440    0.83781
9450    0.83698
9460    0.83618
9470    0.83551
9480    0.83434
9490    0.83349
9500    0.83260
9510    0.83166
9520    0.83057
9530    0.82974
9540    0.82875
9550    0.82790
9560    0.82710
9570    0.82604
9580    0.82497
9590    0.82394
9600    0.82293
9610    0.82190
9620    0.82090
9630    0.81994
9640    0.81883
9650    0.81773
9660    0.81645
9670    0.81537
9680    0.81407
9690    0.81295
9700    0.81177
9710    0.81068
9720    0.80943
9730    0.80869
9740    0.80758
9750    0.80635
9760    0.80516
9770    0.80404
9780    0.80289
9790    0.80180
9800    0.80072
9810    0.79943
9820    0.79823
9830    0.79720
9840    0.79615
9850    0.79505
9860    0.79397
9870    0.79293
9880    0.79157
9890    0.79041
9900    0.78921
9910    0.78805
9920    0.78667
9930    0.78557
9940    0.78422
9950    0.78298
9960    0.78175
9970    0.78062
9980    0.77934
9990    0.77807
10000	0.77677
10001	0.77559
10002	0.77451
10003	0.77345
10004	0.77247
10005	0.77134
10006	0.77016
10007	0.76897
10008	0.76771
10009	0.76660
10100	0.76539
10101	0.76415
10102	0.76275
10103	0.76186
10104	0.76062
10105	0.75951
10106	0.75833
10107	0.75730
10108	0.75595
10109	0.75477
10200	0.75343
10210	0.75208
10220	0.75100
10230	0.74991
10240	0.74879
10250	0.74758
10260	0.74641
10270	0.74512
10280	0.74389
10290	0.74267
10300	0.74153
10310	0.74037
10320	0.73901
10330	0.73792
10340	0.73662
10350	0.73553
10360	0.73428
10370	0.73318
10380	0.73174
10390	0.73054
10400	0.72934
10410	0.72806
10420	0.72675
10430	0.72551
10440	0.72423
10450	0.72293
10460	0.72173
10470	0.72037
10480	0.71898
10490	0.71766
10500	0.71637
10510	0.71491
10520	0.71349
10530	0.71224
10540	0.71095
10550	0.70970
10560	0.70834
10570	0.70710
10580	0.70562
10590	0.70435
10600	0.70297
10610	0.70165
10620	0.70029
10630	0.69901
10640	0.69770
10650	0.69640
10660	0.69517
10670	0.69374
10680	0.69250
10690	0.69167
10700	0.69090
10710	0.69017
10720	0.68942
10730	0.68879
10740	0.68808
10750	0.68738
10760	0.68665
10770	0.68600
10780	0.68519
10790	0.68447
10800	0.68365
10810	0.68222
10820	0.68091
10830	0.67964
10840	0.67829
10850	0.67704
10860	0.67558
10870	0.67421
10880	0.67251
10890	0.67122
10900	0.66990
10910	0.66844
10920	0.66711
10930	0.66578
10940	0.66426
10950	0.66253
10960	0.66097
10970	0.66009
10980	0.65897
10990	0.65809
11000	0.65624
15000   0.00
